June 25, 2024   17:10:05
Cyclic Voltammetry
File: c:/users/lab/d3talesrobotics/data/cond3_all_tempo_/20240625/exp01_06tnkr\cycle10_cv05_17_07_15.bin
Data Source:  Experiment
Instrument Model:  CHI650E
Header:  CV cycle10_cv05_17_07_15
Note: 

Init E (V) = 0
High E (V) = 0.7
Low E (V) = 0
Final E (V) = 0
Init P/N = P
Scan Rate (V/s) = 0.01
Segment = 2
Sample Interval (V) = 0.01
Quiet Time (sec) = 2
Sensitivity (A/V) = 1e-6

Segment 1:

Segment 2:

Potential/V, Current/A

0.005, 6.052e-10
0.015, 5.463e-10
0.025, 5.086e-10
0.035, 4.905e-10
0.045, 4.913e-10
0.055, 4.795e-10
0.065, 4.921e-10
0.075, 5.046e-10
0.085, 5.031e-10
0.095, 5.235e-10
0.105, 5.439e-10
0.115, 5.777e-10
0.125, 6.092e-10
0.135, 6.658e-10
0.145, 7.444e-10
0.155, 8.615e-10
0.165, 1.030e-9
0.175, 1.279e-9
0.185, 1.633e-9
0.195, 2.136e-9
0.205, 2.885e-9
0.215, 3.961e-9
0.225, 5.533e-9
0.235, 7.778e-9
0.245, 1.090e-8
0.255, 1.530e-8
0.265, 2.135e-8
0.275, 2.942e-8
0.285, 3.989e-8
0.295, 5.302e-8
0.305, 6.877e-8
0.315, 8.662e-8
0.325, 1.058e-7
0.335, 1.252e-7
0.345, 1.438e-7
0.355, 1.608e-7
0.365, 1.755e-7
0.375, 1.879e-7
0.385, 1.981e-7
0.395, 2.063e-7
0.405, 2.128e-7
0.415, 2.181e-7
0.425, 2.223e-7
0.435, 2.257e-7
0.445, 2.285e-7
0.455, 2.308e-7
0.465, 2.327e-7
0.475, 2.343e-7
0.485, 2.358e-7
0.495, 2.370e-7
0.505, 2.381e-7
0.515, 2.390e-7
0.525, 2.399e-7
0.535, 2.408e-7
0.545, 2.415e-7
0.555, 2.421e-7
0.565, 2.428e-7
0.575, 2.433e-7
0.585, 2.438e-7
0.595, 2.443e-7
0.605, 2.447e-7
0.615, 2.452e-7
0.625, 2.456e-7
0.635, 2.459e-7
0.645, 2.463e-7
0.655, 2.466e-7
0.665, 2.469e-7
0.675, 2.472e-7
0.685, 2.474e-7
0.695, 2.477e-7
0.695, 2.477e-7
0.685, 2.473e-7
0.675, 2.470e-7
0.665, 2.466e-7
0.655, 2.462e-7
0.645, 2.458e-7
0.635, 2.454e-7
0.625, 2.450e-7
0.615, 2.446e-7
0.605, 2.441e-7
0.595, 2.435e-7
0.585, 2.429e-7
0.575, 2.423e-7
0.565, 2.417e-7
0.555, 2.410e-7
0.545, 2.402e-7
0.535, 2.393e-7
0.525, 2.384e-7
0.515, 2.373e-7
0.505, 2.361e-7
0.495, 2.348e-7
0.485, 2.333e-7
0.475, 2.317e-7
0.465, 2.297e-7
0.455, 2.274e-7
0.445, 2.247e-7
0.435, 2.214e-7
0.425, 2.175e-7
0.415, 2.128e-7
0.405, 2.070e-7
0.395, 1.998e-7
0.385, 1.911e-7
0.375, 1.804e-7
0.365, 1.676e-7
0.355, 1.527e-7
0.345, 1.358e-7
0.335, 1.175e-7
0.325, 9.852e-8
0.315, 8.006e-8
0.305, 6.289e-8
0.295, 4.791e-8
0.285, 3.545e-8
0.275, 2.563e-8
0.265, 1.806e-8
0.255, 1.247e-8
0.245, 8.469e-9
0.235, 5.625e-9
0.225, 3.662e-9
0.215, 2.332e-9
0.205, 1.443e-9
0.195, 8.607e-10
0.185, 4.803e-10
0.175, 2.452e-10
0.165, 1.038e-10
0.155, 1.808e-11
0.145, -1.179e-11
0.135, -2.044e-11
0.125, -1.179e-11
0.115, 1.336e-11
0.105, 2.279e-11
0.095, 4.716e-11
0.085, 6.681e-11
0.075, 1.045e-10
0.065, 1.203e-10
0.055, 1.501e-10
0.045, 1.721e-10
0.035, 1.910e-10
0.025, 2.130e-10
0.015, 2.319e-10
0.005, 2.452e-10
